Root (ft),Chord (ft),Beta (deg)
0.75,0.0879,81.4678
0.9918,0.1472,78.249
1.2335,0.216,75.115
1.4752,0.2903,72.0803
1.717,0.3663,69.1565
1.9587,0.4406,66.3519
2.2005,0.5103,63.672
2.4423,0.573,61.1196
2.684,0.6269,58.6953
2.9257,0.6708,56.3975
3.1675,0.7037,54.2236
3.4093,0.7251,52.1695
3.651,0.7345,50.2305
3.8927,0.7315,48.4012
4.1345,0.7155,46.676
4.3762,0.6854,45.0492
4.618,0.6398,43.5149
4.8598,0.5754,42.0675
5.1015,0.4859,40.7015
5.3433,0.354,39.4117
5.585,0,38.1931
