Root (ft),Chord (ft),Beta (deg)
0.5,0.3366,56.5544
0.6188,0.3982,50.6329
0.7375,0.4344,45.6152
0.8562,0.4504,41.3705
0.975,0.4521,37.77
1.0938,0.4443,34.7004
1.2125,0.4304,32.0664
1.3312,0.4129,29.7907
1.45,0.3931,27.8106
1.5687,0.372,26.076
1.6875,0.3503,24.5466
1.8063,0.328,23.1898
1.925,0.3054,21.9792
2.0438,0.2822,20.8935
2.1625,0.2584,19.9148
2.2813,0.2334,19.0286
2.4,0.2068,18.2227
2.5187,0.1776,17.487
2.6375,0.1439,16.8129
2.7563,0.1011,16.1931
2.875,0,15.6215
